TITLE	
DATA TYPE	
ORIGIN	JASCO
OWNER	
DATE	24/06/07
TIME	15:35:00
SPECTROMETER/DATA SYSTEM	JASCO Corp., V-730, Rev. 1.00
RESOLUTION	
DELTAX	-0.2
XUNITS	NANOMETERS
YUNITS	ABSORBANCE
FIRSTX	700
LASTX	500
NPOINTS	1001
FIRSTY	0.199896
MAXY	1.35687
MINY	0.133674
XYDATA
700	0.199896
699.8	0.202118
699.6	0.204424
699.4	0.206665
699.2	0.208991
699	0.211436
698.8	0.213901
698.6	0.216378
698.4	0.218938
698.2	0.221544
698	0.224183
697.8	0.226953
697.6	0.229757
697.4	0.232529
697.2	0.235402
697	0.238391
696.8	0.241366
696.6	0.244377
696.4	0.24753
696.2	0.250764
696	0.253998
695.8	0.257311
695.6	0.260704
695.4	0.264164
695.2	0.267698
695	0.27132
694.8	0.275033
694.6	0.278798
694.4	0.282621
694.2	0.286553
694	0.290656
693.8	0.294826
693.6	0.299009
693.4	0.303269
693.2	0.30768
693	0.312146
692.8	0.316633
692.6	0.321277
692.4	0.326011
692.2	0.330854
692	0.335779
691.8	0.340709
691.6	0.345815
691.4	0.35107
691.2	0.356335
691	0.361698
690.8	0.367269
690.6	0.372888
690.4	0.378506
690.2	0.384286
690	0.390242
689.8	0.396229
689.6	0.402293
689.4	0.408561
689.2	0.414946
689	0.421378
688.8	0.427908
688.6	0.434565
688.4	0.441296
688.2	0.448164
688	0.455148
687.8	0.462214
687.6	0.469492
687.4	0.476848
687.2	0.484294
687	0.491926
686.8	0.499689
686.6	0.507525
686.4	0.515482
686.2	0.523576
686	0.531823
685.8	0.540174
685.6	0.548542
685.4	0.557065
685.2	0.565785
685	0.574606
684.8	0.58342
684.6	0.592398
684.4	0.601539
684.2	0.610729
684	0.620119
683.8	0.629663
683.6	0.639295
683.4	0.648978
683.2	0.658736
683	0.668703
682.8	0.678712
682.6	0.688729
682.4	0.698732
682.2	0.708755
682	0.719002
681.8	0.729381
681.6	0.739676
681.4	0.750074
681.2	0.760676
681	0.771197
680.8	0.781699
680.6	0.792352
680.4	0.803143
680.2	0.813968
680	0.824775
679.8	0.835628
679.6	0.846643
679.4	0.857533
679.2	0.868356
679	0.879319
678.8	0.890241
678.6	0.901038
678.4	0.911789
678.2	0.922637
678	0.933638
677.8	0.944614
677.6	0.955351
677.4	0.966032
677.2	0.976801
677	0.987576
676.8	0.998261
676.6	1.0088
676.4	1.01939
676.2	1.02992
676	1.04019
675.8	1.05044
675.6	1.06076
675.4	1.07106
675.2	1.08111
675	1.09107
674.8	1.10109
674.6	1.11094
674.4	1.1205
674.2	1.12981
674	1.13906
673.8	1.14831
673.6	1.15729
673.4	1.16606
673.2	1.17478
673	1.18331
672.8	1.19154
672.6	1.1996
672.4	1.20751
672.2	1.21521
672	1.22289
671.8	1.2303
671.6	1.23733
671.4	1.2444
671.2	1.25133
671	1.25796
670.8	1.26432
670.6	1.27033
670.4	1.27618
670.2	1.28194
670	1.28748
669.8	1.2927
669.6	1.29758
669.4	1.30235
669.2	1.30703
669	1.3114
668.8	1.31559
668.6	1.31941
668.4	1.32312
668.2	1.32671
668	1.33006
667.8	1.33324
667.6	1.33609
667.4	1.33885
667.2	1.34132
667	1.3436
666.8	1.34583
666.6	1.3477
666.4	1.34938
666.2	1.35086
666	1.3522
665.8	1.35331
665.6	1.35429
665.4	1.35517
665.2	1.35581
665	1.35636
664.8	1.35665
664.6	1.35678
664.4	1.35687
664.2	1.35668
664	1.35641
663.8	1.3561
663.6	1.35538
663.4	1.3545
663.2	1.3536
663	1.35257
662.8	1.35148
662.6	1.35026
662.4	1.34882
662.2	1.34731
662	1.34584
661.8	1.34419
661.6	1.34238
661.4	1.34038
661.2	1.33828
661	1.33626
660.8	1.33413
660.6	1.33181
660.4	1.32947
660.2	1.32702
660	1.32451
659.8	1.32201
659.6	1.31932
659.4	1.31662
659.2	1.31401
659	1.31114
658.8	1.30823
658.6	1.3054
658.4	1.30241
658.2	1.29933
658	1.29627
657.8	1.29319
657.6	1.28994
657.4	1.28671
657.2	1.28348
657	1.28025
656.8	1.27701
656.6	1.27364
656.4	1.27032
656.2	1.26699
656	1.26347
655.8	1.25999
655.6	1.25654
655.4	1.25297
655.2	1.2494
655	1.24585
654.8	1.24223
654.6	1.23868
654.4	1.23492
654.2	1.23096
654	1.22718
653.8	1.22345
653.6	1.21974
653.4	1.21595
653.2	1.21195
653	1.20806
652.8	1.20424
652.6	1.20023
652.4	1.19628
652.2	1.19247
652	1.18847
651.8	1.18436
651.6	1.18033
651.4	1.17635
651.2	1.17227
651	1.16812
650.8	1.16407
650.6	1.16002
650.4	1.15586
650.2	1.15169
650	1.1476
649.8	1.14337
649.6	1.13916
649.4	1.13503
649.2	1.13079
649	1.1266
648.8	1.12246
648.6	1.11832
648.4	1.11413
648.2	1.10983
648	1.1056
647.8	1.10152
647.6	1.09731
647.4	1.09302
647.2	1.08888
647	1.08469
646.8	1.08047
646.6	1.07624
646.4	1.07202
646.2	1.06787
646	1.0636
645.8	1.05938
645.6	1.05524
645.4	1.051
645.2	1.04682
645	1.04267
644.8	1.03852
644.6	1.03443
644.4	1.03035
644.2	1.02637
644	1.02236
643.8	1.01824
643.6	1.01426
643.4	1.01037
643.2	1.00642
643	1.00244
642.8	0.998575
642.6	0.994752
642.4	0.991026
642.2	0.987285
642	0.983466
641.8	0.979809
641.6	0.97622
641.4	0.972652
641.2	0.969089
641	0.965443
640.8	0.961954
640.6	0.958566
640.4	0.955163
640.2	0.951734
640	0.948372
639.8	0.945143
639.6	0.941943
639.4	0.938798
639.2	0.935732
639	0.932654
638.8	0.929595
638.6	0.92674
638.4	0.923884
638.2	0.921035
638	0.918218
637.8	0.91542
637.6	0.912754
637.4	0.910134
637.2	0.907549
637	0.904999
636.8	0.902484
636.6	0.900079
636.4	0.897665
636.2	0.895284
636	0.893104
635.8	0.890836
635.6	0.888617
635.4	0.886589
635.2	0.884526
635	0.882569
634.8	0.880659
634.6	0.878686
634.4	0.876837
634.2	0.875087
634	0.873353
633.8	0.871679
633.6	0.870032
633.4	0.868501
633.2	0.867041
633	0.865576
632.8	0.864254
632.6	0.862964
632.4	0.861678
632.2	0.86051
632	0.859335
631.8	0.858245
631.6	0.857298
631.4	0.856274
631.2	0.855349
631	0.854558
630.8	0.853749
630.6	0.853009
630.4	0.852318
630.2	0.851683
630	0.851133
629.8	0.850688
629.6	0.85026
629.4	0.849865
629.2	0.849501
629	0.849154
628.8	0.848856
628.6	0.848739
628.4	0.848679
628.2	0.848521
628	0.84852
627.8	0.848538
627.6	0.848584
627.4	0.848758
627.2	0.848886
627	0.849111
626.8	0.849463
626.6	0.849827
626.4	0.850178
626.2	0.850539
626	0.851054
625.8	0.85162
625.6	0.852199
625.4	0.852829
625.2	0.853449
625	0.854104
624.8	0.854852
624.6	0.855625
624.4	0.856414
624.2	0.857294
624	0.858192
623.8	0.859079
623.6	0.860023
623.4	0.861044
623.2	0.862015
623	0.86294
622.8	0.864048
622.6	0.865175
622.4	0.866207
622.2	0.867325
622	0.868525
621.8	0.869648
621.6	0.870758
621.4	0.872022
621.2	0.873259
621	0.874485
620.8	0.875755
620.6	0.876953
620.4	0.878167
620.2	0.879468
620	0.880723
619.8	0.881926
619.6	0.883085
619.4	0.884299
619.2	0.885583
619	0.886775
618.8	0.888034
618.6	0.889253
618.4	0.890409
618.2	0.891537
618	0.892604
617.8	0.893764
617.6	0.894872
617.4	0.895983
617.2	0.897027
617	0.898017
616.8	0.899078
616.6	0.89994
616.4	0.900868
616.2	0.901899
616	0.902746
615.8	0.903586
615.6	0.904417
615.4	0.905153
615.2	0.905847
615	0.906453
614.8	0.907108
614.6	0.907634
614.4	0.908051
614.2	0.908552
614	0.908947
613.8	0.909333
613.6	0.909638
613.4	0.909839
613.2	0.910045
613	0.910095
612.8	0.910137
612.6	0.910164
612.4	0.910059
612.2	0.909909
612	0.909689
611.8	0.909474
611.6	0.909119
611.4	0.908668
611.2	0.908182
611	0.907572
610.8	0.906879
610.6	0.906129
610.4	0.905357
610.2	0.904492
610	0.903524
609.8	0.902519
609.6	0.901418
609.4	0.900184
609.2	0.89891
609	0.897621
608.8	0.896247
608.6	0.894714
608.4	0.893072
608.2	0.891453
608	0.88977
607.8	0.887953
607.6	0.886073
607.4	0.884204
607.2	0.882183
607	0.880019
606.8	0.877871
606.6	0.875633
606.4	0.8733
606.2	0.870887
606	0.868391
605.8	0.865902
605.6	0.863405
605.4	0.8607
605.2	0.85791
605	0.855149
604.8	0.852252
604.6	0.849305
604.4	0.846301
604.2	0.84318
604	0.840076
603.8	0.836855
603.6	0.83357
603.4	0.830201
603.2	0.826839
603	0.82344
602.8	0.819909
602.6	0.816364
602.4	0.812792
602.2	0.809246
602	0.805546
601.8	0.801763
601.6	0.79808
601.4	0.7943
601.2	0.790458
601	0.786639
600.8	0.782866
600.6	0.779056
600.4	0.77512
600.2	0.771242
600	0.767269
599.8	0.763213
599.6	0.759264
599.4	0.755371
599.2	0.751438
599	0.747381
598.8	0.743309
598.6	0.739281
598.4	0.735281
598.2	0.731195
598	0.72706
597.8	0.723001
597.6	0.718919
597.4	0.714804
597.2	0.710648
597	0.706524
596.8	0.702442
596.6	0.698365
596.4	0.694351
596.2	0.690318
596	0.686232
595.8	0.682096
595.6	0.678014
595.4	0.673952
595.2	0.669859
595	0.665789
594.8	0.661641
594.6	0.657514
594.4	0.653449
594.2	0.649375
594	0.645303
593.8	0.641266
593.6	0.637259
593.4	0.633253
593.2	0.629263
593	0.625279
592.8	0.62138
592.6	0.61758
592.4	0.613744
592.2	0.609905
592	0.606012
591.8	0.602214
591.6	0.598505
591.4	0.594751
591.2	0.591015
591	0.587265
590.8	0.583571
590.6	0.579902
590.4	0.576249
590.2	0.572648
590	0.569128
589.8	0.565566
589.6	0.561941
589.4	0.558433
589.2	0.554975
589	0.551509
588.8	0.548063
588.6	0.544596
588.4	0.541142
588.2	0.537793
588	0.534496
587.8	0.53121
587.6	0.52793
587.4	0.524663
587.2	0.52146
587	0.518225
586.8	0.514964
586.6	0.511711
586.4	0.50858
586.2	0.505481
586	0.50236
585.8	0.499278
585.6	0.49614
585.4	0.493097
585.2	0.49009
585	0.487063
584.8	0.484068
584.6	0.481042
584.4	0.478083
584.2	0.475196
584	0.472286
583.8	0.469441
583.6	0.46665
583.4	0.463869
583.2	0.461082
583	0.45828
582.8	0.45554
582.6	0.45288
582.4	0.450264
582.2	0.447632
582	0.444996
581.8	0.442451
581.6	0.439982
581.4	0.437483
581.2	0.434989
581	0.432533
580.8	0.430043
580.6	0.427611
580.4	0.425197
580.2	0.422774
580	0.420497
579.8	0.41826
579.6	0.415922
579.4	0.413581
579.2	0.411389
579	0.409233
578.8	0.407015
578.6	0.40482
578.4	0.402656
578.2	0.400459
578	0.398287
577.8	0.396206
577.6	0.394122
577.4	0.392046
577.2	0.389996
577	0.388025
576.8	0.386025
576.6	0.383992
576.4	0.38204
576.2	0.380136
576	0.378259
575.8	0.37638
575.6	0.374533
575.4	0.372717
575.2	0.370875
575	0.369066
574.8	0.36728
574.6	0.365496
574.4	0.363757
574.2	0.362002
574	0.360265
573.8	0.35856
573.6	0.356881
573.4	0.355273
573.2	0.353637
573	0.351941
572.8	0.350362
572.6	0.348755
572.4	0.347151
572.2	0.345607
572	0.344053
571.8	0.342486
571.6	0.340928
571.4	0.339388
571.2	0.337918
571	0.336413
570.8	0.334887
570.6	0.333494
570.4	0.33209
570.2	0.33066
570	0.329241
569.8	0.327811
569.6	0.326362
569.4	0.324962
569.2	0.32358
569	0.32218
568.8	0.320873
568.6	0.319591
568.4	0.318235
568.2	0.316967
568	0.315669
567.8	0.314316
567.6	0.313035
567.4	0.311772
567.2	0.310506
567	0.30928
566.8	0.308035
566.6	0.306722
566.4	0.30547
566.2	0.304275
566	0.30305
565.8	0.301783
565.6	0.300577
565.4	0.299418
565.2	0.298199
565	0.296974
564.8	0.295809
564.6	0.294607
564.4	0.293336
564.2	0.292148
564	0.290966
563.8	0.289751
563.6	0.288605
563.4	0.287418
563.2	0.286231
563	0.285134
562.8	0.283982
562.6	0.282813
562.4	0.281705
562.2	0.280589
562	0.279446
561.8	0.27824
561.6	0.277115
561.4	0.276041
561.2	0.274893
561	0.273787
560.8	0.272685
560.6	0.271552
560.4	0.270457
560.2	0.269322
560	0.268189
559.8	0.267091
559.6	0.265979
559.4	0.264917
559.2	0.263869
559	0.262775
558.8	0.261665
558.6	0.26056
558.4	0.259484
558.2	0.258397
558	0.257287
557.8	0.256218
557.6	0.255095
557.4	0.254016
557.2	0.253035
557	0.25198
556.8	0.250865
556.6	0.249782
556.4	0.248783
556.2	0.247775
556	0.246734
555.8	0.245694
555.6	0.244604
555.4	0.24352
555.2	0.242497
555	0.241454
554.8	0.240411
554.6	0.239407
554.4	0.238297
554.2	0.237183
554	0.236211
553.8	0.235263
553.6	0.234205
553.4	0.233096
553.2	0.232089
553	0.231083
552.8	0.230069
552.6	0.229086
552.4	0.228034
552.2	0.22706
552	0.226071
551.8	0.224991
551.6	0.22403
551.4	0.223047
551.2	0.22202
551	0.22103
550.8	0.220111
550.6	0.219194
550.4	0.218218
550.2	0.217262
550	0.216273
549.8	0.215286
549.6	0.214313
549.4	0.213314
549.2	0.212421
549	0.211542
548.8	0.210583
548.6	0.209635
548.4	0.20873
548.2	0.207825
548	0.206904
547.8	0.206039
547.6	0.205189
547.4	0.204257
547.2	0.203365
547	0.202556
546.8	0.201671
546.6	0.200832
546.4	0.200044
546.2	0.199236
546	0.198399
545.8	0.197526
545.6	0.196637
545.4	0.195784
545.2	0.194979
545	0.194222
544.8	0.193429
544.6	0.192606
544.4	0.191814
544.2	0.191089
544	0.190395
543.8	0.1896
543.6	0.188835
543.4	0.188079
543.2	0.187323
543	0.18662
542.8	0.185913
542.6	0.185202
542.4	0.184507
542.2	0.183769
542	0.183079
541.8	0.182456
541.6	0.181745
541.4	0.181059
541.2	0.180434
541	0.17975
540.8	0.179086
540.6	0.178464
540.4	0.177813
540.2	0.177158
540	0.176556
539.8	0.175953
539.6	0.175325
539.4	0.174689
539.2	0.174055
539	0.173506
538.8	0.172911
538.6	0.17226
538.4	0.171668
538.2	0.17107
538	0.170565
537.8	0.170037
537.6	0.169486
537.4	0.168959
537.2	0.168391
537	0.167854
536.8	0.167293
536.6	0.166776
536.4	0.166246
536.2	0.165732
536	0.165258
535.8	0.164724
535.6	0.164254
535.4	0.163864
535.2	0.163359
535	0.162827
534.8	0.162369
534.6	0.161878
534.4	0.161414
534.2	0.160953
534	0.160474
533.8	0.160062
533.6	0.159666
533.4	0.15923
533.2	0.158778
533	0.158362
532.8	0.157956
532.6	0.157531
532.4	0.157084
532.2	0.156672
532	0.156278
531.8	0.155872
531.6	0.155463
531.4	0.15505
531.2	0.154668
531	0.154253
530.8	0.153884
530.6	0.153582
530.4	0.153234
530.2	0.152865
530	0.152419
529.8	0.152075
529.6	0.151798
529.4	0.151427
529.2	0.151138
529	0.150805
528.8	0.150457
528.6	0.150217
528.4	0.149931
528.2	0.149583
528	0.149175
527.8	0.14885
527.6	0.148551
527.4	0.148262
527.2	0.148009
527	0.147708
526.8	0.147436
526.6	0.147072
526.4	0.146825
526.2	0.146613
526	0.146305
525.8	0.146118
525.6	0.145871
525.4	0.145585
525.2	0.145369
525	0.145118
524.8	0.144876
524.6	0.144688
524.4	0.144466
524.2	0.144217
524	0.143977
523.8	0.143745
523.6	0.143498
523.4	0.143268
523.2	0.14307
523	0.14284
522.8	0.142626
522.6	0.142392
522.4	0.142234
522.2	0.14206
522	0.141802
521.8	0.141674
521.6	0.141498
521.4	0.141258
521.2	0.141128
521	0.141007
520.8	0.14083
520.6	0.140687
520.4	0.140508
520.2	0.140232
520	0.140141
519.8	0.140084
519.6	0.139884
519.4	0.139694
519.2	0.13952
519	0.139386
518.8	0.139325
518.6	0.139211
518.4	0.139103
518.2	0.139019
518	0.138863
517.8	0.1387
517.6	0.138582
517.4	0.138439
517.2	0.138307
517	0.138195
516.8	0.138104
516.6	0.138051
516.4	0.137939
516.2	0.137785
516	0.137636
515.8	0.137479
515.6	0.137419
515.4	0.137441
515.2	0.137368
515	0.13728
514.8	0.137162
514.6	0.137163
514.4	0.137158
514.2	0.137043
514	0.136919
513.8	0.1368
513.6	0.136767
513.4	0.136754
513.2	0.136688
513	0.136581
512.8	0.136501
512.6	0.136446
512.4	0.136394
512.2	0.136337
512	0.136235
511.8	0.136113
511.6	0.136151
511.4	0.136159
511.2	0.136073
511	0.13603
510.8	0.135983
510.6	0.135917
510.4	0.135821
510.2	0.135829
510	0.135792
509.8	0.135742
509.6	0.135722
509.4	0.135659
509.2	0.135594
509	0.135538
508.8	0.135549
508.6	0.135477
508.4	0.135418
508.2	0.135429
508	0.135392
507.8	0.135353
507.6	0.135374
507.4	0.135275
507.2	0.135185
507	0.135238
506.8	0.13517
506.6	0.135142
506.4	0.135143
506.2	0.135037
506	0.134978
505.8	0.135055
505.6	0.135051
505.4	0.134935
505.2	0.134938
505	0.134908
504.8	0.134833
504.6	0.134769
504.4	0.134677
504.2	0.134677
504	0.134681
503.8	0.134648
503.6	0.13459
503.4	0.134588
503.2	0.134579
503	0.134492
502.8	0.134494
502.6	0.134464
502.4	0.134406
502.2	0.134391
502	0.134401
501.8	0.134305
501.6	0.134206
501.4	0.134194
501.2	0.134076
501	0.133978
500.8	0.133995
500.6	0.133899
500.4	0.133801
500.2	0.133761
500	0.133674



[コメント情報]
試料名	
オペレーター	
所属	
コメント	

[データ情報]
作成日時	2024/06/07 15:35
スタート	700 nm
エンド	500 nm
データ間隔	0.2 nm
データ数	1001    

[測定情報]
機種名	V-730
シリアル番号	A146661798
測光モード	Abs
UV/Vis バンド幅	1.0 nm
レスポンス	Quick
走査速度	400 nm/min
光源	自動
光源切換	340 nm

[付属品情報]
付属品名	UCB-710
シリアル番号	A146661798
