TITLE	
DATA TYPE	
ORIGIN	JASCO
OWNER	
DATE	24/06/07
TIME	15:48:00
SPECTROMETER/DATA SYSTEM	JASCO Corp., V-730, Rev. 1.00
RESOLUTION	
DELTAX	-0.2
XUNITS	NANOMETERS
YUNITS	ABSORBANCE
FIRSTX	700
LASTX	500
NPOINTS	1001
FIRSTY	0.213326
MAXY	1.48696
MINY	0.137902
XYDATA
700	0.213326
699.8	0.215705
699.6	0.218235
699.4	0.220745
699.2	0.223318
699	0.226021
698.8	0.228746
698.6	0.231445
698.4	0.234227
698.2	0.237133
698	0.240072
697.8	0.243105
697.6	0.246178
697.4	0.249214
697.2	0.252371
697	0.255693
696.8	0.258961
696.6	0.262273
696.4	0.265757
696.2	0.269275
696	0.272821
695.8	0.276472
695.6	0.28022
695.4	0.284038
695.2	0.287899
695	0.291856
694.8	0.29597
694.6	0.300134
694.4	0.304366
694.2	0.308681
694	0.313124
693.8	0.317722
693.6	0.32234
693.4	0.327047
693.2	0.331879
693	0.336793
692.8	0.341815
692.6	0.346939
692.4	0.352132
692.2	0.357437
692	0.362905
691.8	0.3684
691.6	0.373949
691.4	0.379687
691.2	0.385519
691	0.391425
690.8	0.397536
690.6	0.403726
690.4	0.40993
690.2	0.416284
690	0.422841
689.8	0.429464
689.6	0.43614
689.4	0.443015
689.2	0.449995
689	0.457033
688.8	0.46424
688.6	0.471606
688.4	0.479062
688.2	0.486629
688	0.494277
687.8	0.502053
687.6	0.510038
687.4	0.518108
687.2	0.526305
687	0.534698
686.8	0.543257
686.6	0.551925
686.4	0.560695
686.2	0.569602
686	0.578675
685.8	0.587854
685.6	0.597044
685.4	0.606418
685.2	0.616037
685	0.625726
684.8	0.635424
684.6	0.64529
684.4	0.655331
684.2	0.665487
684	0.675776
683.8	0.686283
683.6	0.696941
683.4	0.707595
683.2	0.718349
683	0.729274
682.8	0.740294
682.6	0.751305
682.4	0.762232
682.2	0.77326
682	0.784561
681.8	0.795973
681.6	0.807311
681.4	0.818786
681.2	0.830436
681	0.842066
680.8	0.853635
680.6	0.865305
680.4	0.877242
680.2	0.889201
680	0.90108
679.8	0.913088
679.6	0.925168
679.4	0.937156
679.2	0.94909
679	0.961038
678.8	0.973051
678.6	0.984999
678.4	0.996893
678.2	1.00887
678	1.02095
677.8	1.03298
677.6	1.04482
677.4	1.05661
677.2	1.06845
677	1.08024
676.8	1.09197
676.6	1.10359
676.4	1.1153
676.2	1.12698
676	1.13836
675.8	1.14958
675.6	1.16088
675.4	1.17211
675.2	1.18322
675	1.19429
674.8	1.20527
674.6	1.21609
674.4	1.22652
674.2	1.23671
674	1.24693
673.8	1.25713
673.6	1.26712
673.4	1.27685
673.2	1.28639
673	1.29578
672.8	1.30485
672.6	1.31368
672.4	1.32242
672.2	1.33096
672	1.33941
671.8	1.34753
671.6	1.35534
671.4	1.36319
671.2	1.37075
671	1.37782
670.8	1.38482
670.6	1.39163
670.4	1.39808
670.2	1.4044
670	1.41038
669.8	1.41618
669.6	1.42183
669.4	1.42709
669.2	1.43198
669	1.4366
668.8	1.44114
668.6	1.44557
668.4	1.44972
668.2	1.45364
668	1.45748
667.8	1.46106
667.6	1.46418
667.4	1.46712
667.2	1.46981
667	1.47221
666.8	1.47458
666.6	1.47673
666.4	1.47853
666.2	1.48026
666	1.4819
665.8	1.48316
665.6	1.48419
665.4	1.48508
665.2	1.48584
665	1.48649
664.8	1.48676
664.6	1.48681
664.4	1.48696
664.2	1.48674
664	1.48614
663.8	1.48572
663.6	1.48529
663.4	1.48447
663.2	1.48349
663	1.48233
662.8	1.48093
662.6	1.47953
662.4	1.47807
662.2	1.47655
662	1.47479
661.8	1.47267
661.6	1.47074
661.4	1.46894
661.2	1.46674
661	1.46433
660.8	1.46216
660.6	1.45961
660.4	1.45666
660.2	1.45397
660	1.45137
659.8	1.44856
659.6	1.4457
659.4	1.44279
659.2	1.43979
659	1.43678
658.8	1.43351
658.6	1.43021
658.4	1.42705
658.2	1.42364
658	1.42021
657.8	1.41681
657.6	1.41339
657.4	1.4099
657.2	1.4064
657	1.40284
656.8	1.39911
656.6	1.39541
656.4	1.39172
656.2	1.388
656	1.38434
655.8	1.38064
655.6	1.37669
655.4	1.37278
655.2	1.36894
655	1.36502
654.8	1.36099
654.6	1.357
654.4	1.35301
654.2	1.34884
654	1.34463
653.8	1.34035
653.6	1.33615
653.4	1.33202
653.2	1.32777
653	1.32355
652.8	1.31928
652.6	1.31497
652.4	1.31063
652.2	1.30616
652	1.30181
651.8	1.29749
651.6	1.29302
651.4	1.28848
651.2	1.28399
651	1.27951
650.8	1.275
650.6	1.27061
650.4	1.26614
650.2	1.2617
650	1.25715
649.8	1.25249
649.6	1.24789
649.4	1.24333
649.2	1.2387
649	1.23398
648.8	1.22941
648.6	1.22497
648.4	1.22038
648.2	1.21574
648	1.21126
647.8	1.20673
647.6	1.20206
647.4	1.19744
647.2	1.19292
647	1.18825
646.8	1.18358
646.6	1.17894
646.4	1.17435
646.2	1.16983
646	1.16518
645.8	1.16052
645.6	1.15593
645.4	1.1513
645.2	1.14677
645	1.14234
644.8	1.13775
644.6	1.13324
644.4	1.12879
644.2	1.12435
644	1.11999
643.8	1.11562
643.6	1.11126
643.4	1.10697
643.2	1.10265
643	1.09833
642.8	1.09401
642.6	1.08977
642.4	1.08577
642.2	1.08165
642	1.07752
641.8	1.07365
641.6	1.06967
641.4	1.06569
641.2	1.06185
641	1.05794
640.8	1.05417
640.6	1.0505
640.4	1.04677
640.2	1.04315
640	1.03957
639.8	1.03605
639.6	1.03253
639.4	1.02906
639.2	1.02575
639	1.02247
638.8	1.01917
638.6	1.016
638.4	1.01292
638.2	1.00985
638	1.00678
637.8	1.00375
637.6	1.00084
637.4	0.998075
637.2	0.995296
637	0.992534
636.8	0.989921
636.6	0.987292
636.4	0.98473
636.2	0.982214
636	0.97979
635.8	0.977424
635.6	0.975135
635.4	0.972915
635.2	0.97074
635	0.96867
634.8	0.966603
634.6	0.96452
634.4	0.962568
634.2	0.960726
634	0.958951
633.8	0.957292
633.6	0.955613
633.4	0.953962
633.2	0.952444
633	0.950958
632.8	0.949542
632.6	0.94822
632.4	0.946915
632.2	0.945752
632	0.944579
631.8	0.943486
631.6	0.942517
631.4	0.94151
631.2	0.940648
631	0.939867
630.8	0.939098
630.6	0.938419
630.4	0.937744
630.2	0.937144
630	0.93666
629.8	0.936296
629.6	0.935979
629.4	0.93566
629.2	0.935385
629	0.9352
628.8	0.934982
628.6	0.934928
628.4	0.934981
628.2	0.934965
628	0.935108
627.8	0.93525
627.6	0.93547
627.4	0.935801
627.2	0.936111
627	0.936483
626.8	0.937006
626.6	0.937604
626.4	0.938147
626.2	0.938693
626	0.939383
625.8	0.940134
625.6	0.94093
625.4	0.941824
625.2	0.942675
625	0.943493
624.8	0.944449
624.6	0.945454
624.4	0.946507
624.2	0.947608
624	0.948784
623.8	0.949978
623.6	0.951094
623.4	0.95232
623.2	0.953517
623	0.954832
622.8	0.956201
622.6	0.9575
622.4	0.958919
622.2	0.960377
622	0.961816
621.8	0.963236
621.6	0.964692
621.4	0.966225
621.2	0.967811
621	0.969358
620.8	0.970845
620.6	0.972291
620.4	0.973879
620.2	0.975474
620	0.976921
619.8	0.978378
619.6	0.979833
619.4	0.981418
619.2	0.983
619	0.984421
618.8	0.985906
618.6	0.987489
618.4	0.989003
618.2	0.990319
618	0.991695
617.8	0.993239
617.6	0.994574
617.4	0.995793
617.2	0.997144
617	0.998465
616.8	0.999721
616.6	1.00089
616.4	1.00204
616.2	1.00327
616	1.0044
615.8	1.0055
615.6	1.00657
615.4	1.00753
615.2	1.00846
615	1.00926
614.8	1.01002
614.6	1.01075
614.4	1.01145
614.2	1.01207
614	1.01259
613.8	1.01314
613.6	1.01361
613.4	1.01394
613.2	1.01424
613	1.01445
612.8	1.01459
612.6	1.01471
612.4	1.01462
612.2	1.01451
612	1.01441
611.8	1.01414
611.6	1.01381
611.4	1.01345
611.2	1.01299
611	1.01239
610.8	1.01175
610.6	1.011
610.4	1.01021
610.2	1.00931
610	1.00828
609.8	1.00717
609.6	1.00602
609.4	1.00475
609.2	1.00335
609	1.00192
608.8	1.00042
608.6	0.998744
608.4	0.996959
608.2	0.995193
608	0.993356
607.8	0.991403
607.6	0.989373
607.4	0.987312
607.2	0.985139
607	0.982818
606.8	0.98039
606.6	0.977862
606.4	0.975281
606.2	0.97263
606	0.969898
605.8	0.967117
605.6	0.964268
605.4	0.961272
605.2	0.958156
605	0.955014
604.8	0.951789
604.6	0.948479
604.4	0.945068
604.2	0.941624
604	0.938157
603.8	0.934564
603.6	0.930886
603.4	0.927135
603.2	0.923399
603	0.919538
602.8	0.915493
602.6	0.911498
602.4	0.907538
602.2	0.903482
602	0.899345
601.8	0.895101
601.6	0.890844
601.4	0.886585
601.2	0.882281
601	0.878033
600.8	0.873766
600.6	0.869467
600.4	0.865083
600.2	0.860577
600	0.856061
599.8	0.851525
599.6	0.847026
599.4	0.842606
599.2	0.838147
599	0.83354
598.8	0.828947
598.6	0.824427
598.4	0.819887
598.2	0.815262
598	0.810538
597.8	0.80589
597.6	0.80124
597.4	0.796587
597.2	0.79194
597	0.787234
596.8	0.782623
596.6	0.778029
596.4	0.7734
596.2	0.768785
596	0.764198
595.8	0.75958
595.6	0.754939
595.4	0.750317
595.2	0.745646
595	0.741017
594.8	0.736399
594.6	0.731742
594.4	0.727091
594.2	0.722508
594	0.717904
593.8	0.713268
593.6	0.708773
593.4	0.704264
593.2	0.699714
593	0.695201
592.8	0.690789
592.6	0.686444
592.4	0.682046
592.2	0.67773
592	0.6734
591.8	0.669093
591.6	0.664863
591.4	0.660595
591.2	0.656353
591	0.652213
590.8	0.648049
590.6	0.643796
590.4	0.639671
590.2	0.635641
590	0.631623
589.8	0.627544
589.6	0.623538
589.4	0.619615
589.2	0.615606
589	0.611633
588.8	0.607711
588.6	0.603738
588.4	0.599797
588.2	0.59604
588	0.592337
587.8	0.588612
587.6	0.584904
587.4	0.581185
587.2	0.577522
587	0.573862
586.8	0.570167
586.6	0.566519
586.4	0.562963
586.2	0.559416
586	0.555876
585.8	0.552427
585.6	0.548941
585.4	0.545443
585.2	0.541982
585	0.538618
584.8	0.535267
584.6	0.531833
584.4	0.528489
584.2	0.525159
584	0.521848
583.8	0.518658
583.6	0.515482
583.4	0.512314
583.2	0.509139
583	0.505964
582.8	0.502866
582.6	0.499849
582.4	0.496915
582.2	0.493976
582	0.491016
581.8	0.488126
581.6	0.485337
581.4	0.482483
581.2	0.479615
581	0.476824
580.8	0.474022
580.6	0.471313
580.4	0.468584
580.2	0.46585
580	0.463225
579.8	0.46062
579.6	0.457984
579.4	0.455359
579.2	0.452849
579	0.450427
578.8	0.447925
578.6	0.445398
578.4	0.442963
578.2	0.4405
578	0.43807
577.8	0.435716
577.6	0.433331
577.4	0.430991
577.2	0.428702
577	0.426442
576.8	0.424193
576.6	0.421969
576.4	0.419775
576.2	0.417596
576	0.415406
575.8	0.413276
575.6	0.411195
575.4	0.409119
575.2	0.40707
575	0.405054
574.8	0.403057
574.6	0.40099
574.4	0.398939
574.2	0.396971
574	0.395047
573.8	0.393126
573.6	0.391235
573.4	0.38937
573.2	0.387486
573	0.385582
572.8	0.383787
572.6	0.381957
572.4	0.380108
572.2	0.378327
572	0.376624
571.8	0.374925
571.6	0.373145
571.4	0.371387
571.2	0.369728
571	0.368079
570.8	0.366387
570.6	0.364768
570.4	0.36318
570.2	0.361566
570	0.359895
569.8	0.358311
569.6	0.356731
569.4	0.355196
569.2	0.353697
569	0.352097
568.8	0.350563
568.6	0.349124
568.4	0.347643
568.2	0.346165
568	0.344698
567.8	0.343196
567.6	0.341659
567.4	0.340214
567.2	0.338828
567	0.337447
566.8	0.336086
566.6	0.334679
566.4	0.333317
566.2	0.33194
566	0.330485
565.8	0.329019
565.6	0.327623
565.4	0.326347
565.2	0.325016
565	0.323553
564.8	0.322201
564.6	0.320854
564.4	0.319491
564.2	0.318187
564	0.316871
563.8	0.315545
563.6	0.314203
563.4	0.312894
563.2	0.311606
563	0.310312
562.8	0.309005
562.6	0.30772
562.4	0.306411
562.2	0.305091
562	0.303825
561.8	0.302554
561.6	0.301246
561.4	0.299996
561.2	0.298773
561	0.297464
560.8	0.296163
560.6	0.2949
560.4	0.293652
560.2	0.29241
560	0.291158
559.8	0.289919
559.6	0.288687
559.4	0.287435
559.2	0.286192
559	0.284948
558.8	0.283712
558.6	0.282555
558.4	0.28135
558.2	0.280071
558	0.278834
557.8	0.277654
557.6	0.276455
557.4	0.27522
557.2	0.274008
557	0.272818
556.8	0.271575
556.6	0.270417
556.4	0.269293
556.2	0.268069
556	0.266882
555.8	0.265697
555.6	0.264483
555.4	0.263307
555.2	0.262105
555	0.260891
554.8	0.259765
554.6	0.258605
554.4	0.257378
554.2	0.256175
554	0.254977
553.8	0.253795
553.6	0.252648
553.4	0.251465
553.2	0.250319
553	0.249153
552.8	0.247952
552.6	0.246857
552.4	0.2457
552.2	0.244548
552	0.243409
551.8	0.242244
551.6	0.241097
551.4	0.239945
551.2	0.238823
551	0.237722
550.8	0.236613
550.6	0.23555
550.4	0.234534
550.2	0.233472
550	0.232368
549.8	0.23124
549.6	0.230143
549.4	0.229041
549.2	0.227982
549	0.226927
548.8	0.225875
548.6	0.22486
548.4	0.223818
548.2	0.222748
548	0.221719
547.8	0.220721
547.6	0.219767
547.4	0.218785
547.2	0.21774
547	0.216771
546.8	0.215795
546.6	0.214844
546.4	0.213904
546.2	0.212912
546	0.211942
545.8	0.210983
545.6	0.210011
545.4	0.209093
545.2	0.208198
545	0.207332
544.8	0.206445
544.6	0.205517
544.4	0.204609
544.2	0.203761
544	0.202951
543.8	0.202065
543.6	0.201183
543.4	0.200375
543.2	0.199538
543	0.198693
542.8	0.197903
542.6	0.197089
542.4	0.196242
542.2	0.195419
542	0.19464
541.8	0.193882
541.6	0.193042
541.4	0.192235
541.2	0.191625
541	0.190875
540.8	0.190018
540.6	0.189286
540.4	0.188557
540.2	0.187774
540	0.187058
539.8	0.186393
539.6	0.185768
539.4	0.185078
539.2	0.184321
539	0.183601
538.8	0.182921
538.6	0.182266
538.4	0.181629
538.2	0.180976
538	0.180311
537.8	0.17973
537.6	0.179097
537.4	0.178418
537.2	0.177815
537	0.177222
536.8	0.176621
536.6	0.176075
536.4	0.17546
536.2	0.17485
536	0.174271
535.8	0.173752
535.6	0.173227
535.4	0.17265
535.2	0.1721
535	0.171592
534.8	0.17109
534.6	0.17052
534.4	0.169985
534.2	0.169402
534	0.168855
533.8	0.168428
533.6	0.167964
533.4	0.167454
533.2	0.16695
533	0.16645
532.8	0.165967
532.6	0.165523
532.4	0.165018
532.2	0.164539
532	0.164079
531.8	0.163587
531.6	0.163149
531.4	0.162699
531.2	0.1623
531	0.161888
530.8	0.161469
530.6	0.161042
530.4	0.16062
530.2	0.160184
530	0.159728
529.8	0.1593
529.6	0.158896
529.4	0.158549
529.2	0.158152
529	0.157781
528.8	0.157481
528.6	0.157162
528.4	0.156788
528.2	0.156452
528	0.156045
527.8	0.155669
527.6	0.15537
527.4	0.154985
527.2	0.154635
527	0.154314
526.8	0.154002
526.6	0.153672
526.4	0.153333
526.2	0.153014
526	0.152707
525.8	0.152467
525.6	0.152216
525.4	0.151911
525.2	0.151607
525	0.151332
524.8	0.151084
524.6	0.150807
524.4	0.150496
524.2	0.150234
524	0.150022
523.8	0.14974
523.6	0.149396
523.4	0.149111
523.2	0.148854
523	0.148599
522.8	0.148369
522.6	0.14808
522.4	0.147865
522.2	0.147677
522	0.147484
521.8	0.147348
521.6	0.147105
521.4	0.146879
521.2	0.146718
521	0.146517
520.8	0.146289
520.6	0.146129
520.4	0.1459
520.2	0.145637
520	0.145587
519.8	0.145488
519.6	0.145244
519.4	0.145025
519.2	0.144871
519	0.144736
518.8	0.144627
518.6	0.144491
518.4	0.144297
518.2	0.14418
518	0.144052
517.8	0.143904
517.6	0.143786
517.4	0.143611
517.2	0.143508
517	0.143431
516.8	0.143317
516.6	0.143182
516.4	0.142965
516.2	0.14282
516	0.142713
515.8	0.142589
515.6	0.142484
515.4	0.142452
515.2	0.142455
515	0.142397
514.8	0.142259
514.6	0.142123
514.4	0.142005
514.2	0.141909
514	0.141856
513.8	0.141736
513.6	0.141577
513.4	0.141496
513.2	0.141419
513	0.141313
512.8	0.141241
512.6	0.141155
512.4	0.141065
512.2	0.140985
512	0.140936
511.8	0.140859
511.6	0.140823
511.4	0.140779
511.2	0.140714
511	0.140687
510.8	0.140615
510.6	0.140572
510.4	0.14054
510.2	0.140456
510	0.140327
509.8	0.140292
509.6	0.140264
509.4	0.140221
509.2	0.140166
509	0.140099
508.8	0.140088
508.6	0.14008
508.4	0.139975
508.2	0.139864
508	0.139883
507.8	0.139874
507.6	0.139851
507.4	0.139745
507.2	0.139602
507	0.1396
506.8	0.139612
506.6	0.139571
506.4	0.139527
506.2	0.139458
506	0.139367
505.8	0.139382
505.6	0.13938
505.4	0.139261
505.2	0.139268
505	0.139244
504.8	0.139185
504.6	0.13915
504.4	0.139106
504.2	0.139063
504	0.139066
503.8	0.139076
503.6	0.138916
503.4	0.138892
503.2	0.138923
503	0.138827
502.8	0.13876
502.6	0.138745
502.4	0.138729
502.2	0.138623
502	0.13856
501.8	0.138464
501.6	0.138306
501.4	0.13833
501.2	0.138318
501	0.138209
500.8	0.138166
500.6	0.138062
500.4	0.137908
500.2	0.137906
500	0.137902



[コメント情報]
試料名	
オペレーター	
所属	
コメント	

[データ情報]
作成日時	2024/06/07 15:48
スタート	700 nm
エンド	500 nm
データ間隔	0.2 nm
データ数	1001    

[測定情報]
機種名	V-730
シリアル番号	A146661798
測光モード	Abs
UV/Vis バンド幅	1.0 nm
レスポンス	Quick
走査速度	400 nm/min
光源	自動
光源切換	340 nm

[付属品情報]
付属品名	UCB-710
シリアル番号	A146661798
