TITLE	
DATA TYPE	
ORIGIN	JASCO
OWNER	
DATE	24/07/05
TIME	20:15:00
SPECTROMETER/DATA SYSTEM	JASCO Corp, V-630, Rev. 1.00
RESOLUTION	
DELTAX	-1.000000
XUNITS	NANOMETERS
YUNITS	ABSORBANCE
FIRSTX	800.0000
LASTX	400.0000
NPOINTS	401
FIRSTY	0.012919
MAXY	0.452137
MINY	0.012177
XYDATA
800.000000	0.012919
799.000000	0.012919
798.000000	0.012922
797.000000	0.012927
796.000000	0.012936
795.000000	0.012945
794.000000	0.012958
793.000000	0.012964
792.000000	0.012966
791.000000	0.012974
790.000000	0.012975
789.000000	0.012986
788.000000	0.012992
787.000000	0.012996
786.000000	0.013014
785.000000	0.013017
784.000000	0.013034
783.000000	0.013043
782.000000	0.013038
781.000000	0.013046
780.000000	0.013045
779.000000	0.013048
778.000000	0.013057
777.000000	0.013058
776.000000	0.013066
775.000000	0.013075
774.000000	0.013083
773.000000	0.013096
772.000000	0.013106
771.000000	0.013118
770.000000	0.013129
769.000000	0.013142
768.000000	0.013165
767.000000	0.013182
766.000000	0.013195
765.000000	0.013218
764.000000	0.013223
763.000000	0.013243
762.000000	0.013273
761.000000	0.013295
760.000000	0.013327
759.000000	0.013351
758.000000	0.013371
757.000000	0.013394
756.000000	0.013415
755.000000	0.013443
754.000000	0.013466
753.000000	0.013490
752.000000	0.013518
751.000000	0.013545
750.000000	0.013582
749.000000	0.013611
748.000000	0.013654
747.000000	0.013703
746.000000	0.013752
745.000000	0.013810
744.000000	0.013881
743.000000	0.014249
742.000000	0.014780
741.000000	0.014635
740.000000	0.013759
739.000000	0.012788
738.000000	0.012177
737.000000	0.012866
736.000000	0.013829
735.000000	0.014126
734.000000	0.014184
733.000000	0.014289
732.000000	0.014489
731.000000	0.014786
730.000000	0.015163
729.000000	0.015527
728.000000	0.015792
727.000000	0.015972
726.000000	0.016048
725.000000	0.016064
724.000000	0.016066
723.000000	0.016080
722.000000	0.016134
721.000000	0.016219
720.000000	0.016342
719.000000	0.016470
718.000000	0.016599
717.000000	0.016734
716.000000	0.016880
715.000000	0.017025
714.000000	0.017164
713.000000	0.017319
712.000000	0.017463
711.000000	0.017619
710.000000	0.017792
709.000000	0.017957
708.000000	0.018142
707.000000	0.018326
706.000000	0.018508
705.000000	0.018709
704.000000	0.018899
703.000000	0.019109
702.000000	0.019329
701.000000	0.019556
700.000000	0.019798
699.000000	0.020048
698.000000	0.020307
697.000000	0.020561
696.000000	0.020832
695.000000	0.021098
694.000000	0.021372
693.000000	0.021664
692.000000	0.021945
691.000000	0.022241
690.000000	0.022532
689.000000	0.022815
688.000000	0.023119
687.000000	0.023419
686.000000	0.023727
685.000000	0.024047
684.000000	0.024356
683.000000	0.024670
682.000000	0.024987
681.000000	0.025299
680.000000	0.025626
679.000000	0.025958
678.000000	0.026281
677.000000	0.026622
676.000000	0.026964
675.000000	0.027303
674.000000	0.027648
673.000000	0.027991
672.000000	0.028331
671.000000	0.028672
670.000000	0.029030
669.000000	0.029373
668.000000	0.029727
667.000000	0.030085
666.000000	0.030438
665.000000	0.030799
664.000000	0.031155
663.000000	0.031501
662.000000	0.031865
661.000000	0.032232
660.000000	0.032597
659.000000	0.032981
658.000000	0.033336
657.000000	0.033705
656.000000	0.034055
655.000000	0.034406
654.000000	0.034768
653.000000	0.035121
652.000000	0.035486
651.000000	0.035828
650.000000	0.036185
649.000000	0.036521
648.000000	0.036872
647.000000	0.037220
646.000000	0.037553
645.000000	0.037886
644.000000	0.038203
643.000000	0.038514
642.000000	0.038821
641.000000	0.039130
640.000000	0.039424
639.000000	0.039732
638.000000	0.040026
637.000000	0.040306
636.000000	0.040585
635.000000	0.040851
634.000000	0.041110
633.000000	0.041367
632.000000	0.041616
631.000000	0.041855
630.000000	0.042097
629.000000	0.042343
628.000000	0.042591
627.000000	0.042838
626.000000	0.043080
625.000000	0.043315
624.000000	0.043552
623.000000	0.043791
622.000000	0.044025
621.000000	0.044269
620.000000	0.044512
619.000000	0.044767
618.000000	0.045040
617.000000	0.045327
616.000000	0.045629
615.000000	0.045954
614.000000	0.046296
613.000000	0.046644
612.000000	0.047021
611.000000	0.047423
610.000000	0.047859
609.000000	0.048323
608.000000	0.048817
607.000000	0.049350
606.000000	0.049885
605.000000	0.050443
604.000000	0.051018
603.000000	0.051588
602.000000	0.052178
601.000000	0.052784
600.000000	0.053405
599.000000	0.054049
598.000000	0.054746
597.000000	0.055513
596.000000	0.056352
595.000000	0.057317
594.000000	0.058409
593.000000	0.059686
592.000000	0.061206
591.000000	0.062989
590.000000	0.065124
589.000000	0.067684
588.000000	0.070746
587.000000	0.074420
586.000000	0.078826
585.000000	0.084035
584.000000	0.090171
583.000000	0.097316
582.000000	0.105532
581.000000	0.114893
580.000000	0.125373
579.000000	0.136917
578.000000	0.149369
577.000000	0.162475
576.000000	0.175880
575.000000	0.189192
574.000000	0.201957
573.000000	0.213769
572.000000	0.224279
571.000000	0.233207
570.000000	0.240406
569.000000	0.245810
568.000000	0.249525
567.000000	0.251765
566.000000	0.252843
565.000000	0.253154
564.000000	0.253120
563.000000	0.253145
562.000000	0.253664
561.000000	0.255080
560.000000	0.257802
559.000000	0.262250
558.000000	0.268755
557.000000	0.277596
556.000000	0.288884
555.000000	0.302528
554.000000	0.318237
553.000000	0.335537
552.000000	0.353727
551.000000	0.371998
550.000000	0.389434
549.000000	0.405084
548.000000	0.418138
547.000000	0.427928
546.000000	0.434079
545.000000	0.436482
544.000000	0.435389
543.000000	0.431294
542.000000	0.424870
541.000000	0.416949
540.000000	0.408311
539.000000	0.399821
538.000000	0.392238
537.000000	0.386235
536.000000	0.382412
535.000000	0.381186
534.000000	0.382849
533.000000	0.387446
532.000000	0.394754
531.000000	0.404243
530.000000	0.415082
529.000000	0.426227
528.000000	0.436501
527.000000	0.444797
526.000000	0.450192
525.000000	0.452137
524.000000	0.450435
523.000000	0.445223
522.000000	0.436933
521.000000	0.426148
520.000000	0.413575
519.000000	0.400014
518.000000	0.386268
517.000000	0.373175
516.000000	0.361453
515.000000	0.351731
514.000000	0.344401
513.000000	0.339540
512.000000	0.337095
511.000000	0.336693
510.000000	0.337780
509.000000	0.339674
508.000000	0.341511
507.000000	0.342400
506.000000	0.341598
505.000000	0.338565
504.000000	0.333083
503.000000	0.325751
502.000000	0.317912
501.000000	0.303036
500.000000	0.285938
499.000000	0.270616
498.000000	0.259678
497.000000	0.249565
496.000000	0.242211
495.000000	0.235271
494.000000	0.228895
493.000000	0.223734
492.000000	0.219721
491.000000	0.216586
490.000000	0.213861
489.000000	0.211055
488.000000	0.207822
487.000000	0.203730
486.000000	0.198523
485.000000	0.192226
484.000000	0.185029
483.000000	0.177120
482.000000	0.168837
481.000000	0.160488
480.000000	0.152384
479.000000	0.144848
478.000000	0.138060
477.000000	0.132183
476.000000	0.127206
475.000000	0.123080
474.000000	0.119660
473.000000	0.116675
472.000000	0.113884
471.000000	0.111007
470.000000	0.107853
469.000000	0.104292
468.000000	0.100259
467.000000	0.095861
466.000000	0.091200
465.000000	0.086436
464.000000	0.081818
463.000000	0.077438
462.000000	0.073429
461.000000	0.069892
460.000000	0.066838
459.000000	0.064196
458.000000	0.061918
457.000000	0.059881
456.000000	0.057942
455.000000	0.056061
454.000000	0.054093
453.000000	0.052044
452.000000	0.049892
451.000000	0.047662
450.000000	0.045434
449.000000	0.043230
448.000000	0.041143
447.000000	0.039219
446.000000	0.037516
445.000000	0.036031
444.000000	0.034758
443.000000	0.033648
442.000000	0.032621
441.000000	0.031669
440.000000	0.030732
439.000000	0.029811
438.000000	0.028885
437.000000	0.027968
436.000000	0.027040
435.000000	0.026129
434.000000	0.025248
433.000000	0.024423
432.000000	0.023694
431.000000	0.023060
430.000000	0.022537
429.000000	0.022084
428.000000	0.021687
427.000000	0.021352
426.000000	0.021000
425.000000	0.020692
424.000000	0.020386
423.000000	0.020082
422.000000	0.019876
421.000000	0.019668
420.000000	0.019550
419.000000	0.019478
418.000000	0.019424
417.000000	0.019463
416.000000	0.019559
415.000000	0.019747
414.000000	0.019999
413.000000	0.020367
412.000000	0.020808
411.000000	0.021482
410.000000	0.022513
409.000000	0.023631
408.000000	0.024859
407.000000	0.026010
406.000000	0.027014
405.000000	0.028055
404.000000	0.029275
403.000000	0.030882
402.000000	0.033009
401.000000	0.035937
400.000000	0.037073
