TITLE	
DATA TYPE	
ORIGIN	JASCO
OWNER	
DATE	24/07/05
TIME	20:10:00
SPECTROMETER/DATA SYSTEM	JASCO Corp, V-630, Rev. 1.00
RESOLUTION	
DELTAX	-1.000000
XUNITS	NANOMETERS
YUNITS	ABSORBANCE
FIRSTX	800.0000
LASTX	400.0000
NPOINTS	401
FIRSTY	-0.000830
MAXY	0.084462
MINY	-0.001035
XYDATA
800.000000	-0.000830
799.000000	-0.000823
798.000000	-0.000821
797.000000	-0.000816
796.000000	-0.000801
795.000000	-0.000798
794.000000	-0.000794
793.000000	-0.000786
792.000000	-0.000791
791.000000	-0.000785
790.000000	-0.000784
789.000000	-0.000778
788.000000	-0.000776
787.000000	-0.000777
786.000000	-0.000771
785.000000	-0.000783
784.000000	-0.000788
783.000000	-0.000793
782.000000	-0.000809
781.000000	-0.000815
780.000000	-0.000828
779.000000	-0.000843
778.000000	-0.000857
777.000000	-0.000880
776.000000	-0.000887
775.000000	-0.000900
774.000000	-0.000902
773.000000	-0.000900
772.000000	-0.000910
771.000000	-0.000912
770.000000	-0.000925
769.000000	-0.000933
768.000000	-0.000937
767.000000	-0.000947
766.000000	-0.000957
765.000000	-0.000966
764.000000	-0.000977
763.000000	-0.000988
762.000000	-0.000989
761.000000	-0.000993
760.000000	-0.001005
759.000000	-0.001013
758.000000	-0.001017
757.000000	-0.001017
756.000000	-0.001019
755.000000	-0.001017
754.000000	-0.001024
753.000000	-0.001023
752.000000	-0.001025
751.000000	-0.001026
750.000000	-0.001025
749.000000	-0.001035
748.000000	-0.001028
747.000000	-0.001021
746.000000	-0.001008
745.000000	-0.000992
744.000000	-0.000986
743.000000	-0.000961
742.000000	-0.000978
741.000000	-0.000947
740.000000	-0.000835
739.000000	-0.000719
738.000000	-0.000608
737.000000	-0.000635
736.000000	-0.000678
735.000000	-0.000710
734.000000	-0.000704
733.000000	-0.000641
732.000000	-0.000595
731.000000	-0.000567
730.000000	-0.000528
729.000000	-0.000519
728.000000	-0.000528
727.000000	-0.000517
726.000000	-0.000526
725.000000	-0.000515
724.000000	-0.000475
723.000000	-0.000444
722.000000	-0.000395
721.000000	-0.000360
720.000000	-0.000334
719.000000	-0.000302
718.000000	-0.000271
717.000000	-0.000234
716.000000	-0.000191
715.000000	-0.000162
714.000000	-0.000126
713.000000	-0.000091
712.000000	-0.000057
711.000000	-0.000019
710.000000	0.000025
709.000000	0.000061
708.000000	0.000096
707.000000	0.000144
706.000000	0.000175
705.000000	0.000212
704.000000	0.000253
703.000000	0.000293
702.000000	0.000336
701.000000	0.000394
700.000000	0.000443
699.000000	0.000495
698.000000	0.000555
697.000000	0.000598
696.000000	0.000658
695.000000	0.000708
694.000000	0.000755
693.000000	0.000818
692.000000	0.000868
691.000000	0.000931
690.000000	0.001000
689.000000	0.001055
688.000000	0.001114
687.000000	0.001178
686.000000	0.001233
685.000000	0.001300
684.000000	0.001375
683.000000	0.001441
682.000000	0.001519
681.000000	0.001586
680.000000	0.001652
679.000000	0.001722
678.000000	0.001783
677.000000	0.001856
676.000000	0.001910
675.000000	0.001970
674.000000	0.002022
673.000000	0.002085
672.000000	0.002151
671.000000	0.002206
670.000000	0.002268
669.000000	0.002316
668.000000	0.002372
667.000000	0.002434
666.000000	0.002491
665.000000	0.002552
664.000000	0.002615
663.000000	0.002668
662.000000	0.002740
661.000000	0.002799
660.000000	0.002862
659.000000	0.002928
658.000000	0.002984
657.000000	0.003054
656.000000	0.003120
655.000000	0.003189
654.000000	0.003263
653.000000	0.003340
652.000000	0.003407
651.000000	0.003475
650.000000	0.003542
649.000000	0.003601
648.000000	0.003677
647.000000	0.003743
646.000000	0.003810
645.000000	0.003864
644.000000	0.003917
643.000000	0.003968
642.000000	0.004030
641.000000	0.004096
640.000000	0.004154
639.000000	0.004224
638.000000	0.004273
637.000000	0.004317
636.000000	0.004370
635.000000	0.004418
634.000000	0.004471
633.000000	0.004538
632.000000	0.004590
631.000000	0.004632
630.000000	0.004678
629.000000	0.004718
628.000000	0.004759
627.000000	0.004811
626.000000	0.004854
625.000000	0.004896
624.000000	0.004943
623.000000	0.004986
622.000000	0.005023
621.000000	0.005064
620.000000	0.005110
619.000000	0.005153
618.000000	0.005208
617.000000	0.005266
616.000000	0.005314
615.000000	0.005379
614.000000	0.005450
613.000000	0.005511
612.000000	0.005587
611.000000	0.005668
610.000000	0.005745
609.000000	0.005831
608.000000	0.005920
607.000000	0.006021
606.000000	0.006113
605.000000	0.006220
604.000000	0.006318
603.000000	0.006420
602.000000	0.006548
601.000000	0.006666
600.000000	0.006806
599.000000	0.006934
598.000000	0.007060
597.000000	0.007220
596.000000	0.007372
595.000000	0.007554
594.000000	0.007756
593.000000	0.007990
592.000000	0.008274
591.000000	0.008602
590.000000	0.009002
589.000000	0.009475
588.000000	0.010054
587.000000	0.010761
586.000000	0.011603
585.000000	0.012609
584.000000	0.013788
583.000000	0.015148
582.000000	0.016718
581.000000	0.018512
580.000000	0.020520
579.000000	0.022740
578.000000	0.025159
577.000000	0.027701
576.000000	0.030313
575.000000	0.032908
574.000000	0.035404
573.000000	0.037718
572.000000	0.039784
571.000000	0.041535
570.000000	0.042950
569.000000	0.044017
568.000000	0.044747
567.000000	0.045203
566.000000	0.045414
565.000000	0.045468
564.000000	0.045452
563.000000	0.045437
562.000000	0.045513
561.000000	0.045754
560.000000	0.046250
559.000000	0.047076
558.000000	0.048316
557.000000	0.050019
556.000000	0.052199
555.000000	0.054862
554.000000	0.057932
553.000000	0.061324
552.000000	0.064887
551.000000	0.068477
550.000000	0.071897
549.000000	0.074977
548.000000	0.077564
547.000000	0.079510
546.000000	0.080767
545.000000	0.081289
544.000000	0.081135
543.000000	0.080384
542.000000	0.079159
541.000000	0.077625
540.000000	0.075936
539.000000	0.074265
538.000000	0.072746
537.000000	0.071540
536.000000	0.070746
535.000000	0.070448
534.000000	0.070725
533.000000	0.071583
532.000000	0.072994
531.000000	0.074853
530.000000	0.076991
529.000000	0.079200
528.000000	0.081248
527.000000	0.082911
526.000000	0.084018
525.000000	0.084462
524.000000	0.084201
523.000000	0.083253
522.000000	0.081705
521.000000	0.079658
520.000000	0.077229
519.000000	0.074607
518.000000	0.071926
517.000000	0.069336
516.000000	0.067024
515.000000	0.065088
514.000000	0.063612
513.000000	0.062633
512.000000	0.062129
511.000000	0.062036
510.000000	0.062267
509.000000	0.062666
508.000000	0.063066
507.000000	0.063284
506.000000	0.063183
505.000000	0.062640
504.000000	0.061634
503.000000	0.060282
502.000000	0.058711
501.000000	0.056225
500.000000	0.053432
499.000000	0.050594
498.000000	0.048292
497.000000	0.046034
496.000000	0.044312
495.000000	0.042781
494.000000	0.041486
493.000000	0.040476
492.000000	0.039730
491.000000	0.039180
490.000000	0.038725
489.000000	0.038267
488.000000	0.037695
487.000000	0.036964
486.000000	0.035985
485.000000	0.034783
484.000000	0.033424
483.000000	0.031907
482.000000	0.030327
481.000000	0.028716
480.000000	0.027132
479.000000	0.025666
478.000000	0.024347
477.000000	0.023217
476.000000	0.022279
475.000000	0.021492
474.000000	0.020860
473.000000	0.020294
472.000000	0.019772
471.000000	0.019247
470.000000	0.018655
469.000000	0.018015
468.000000	0.017253
467.000000	0.016438
466.000000	0.015574
465.000000	0.014677
464.000000	0.013812
463.000000	0.012980
462.000000	0.012204
461.000000	0.011526
460.000000	0.010950
459.000000	0.010429
458.000000	0.010007
457.000000	0.009625
456.000000	0.009258
455.000000	0.008922
454.000000	0.008550
453.000000	0.008163
452.000000	0.007758
451.000000	0.007352
450.000000	0.006955
449.000000	0.006559
448.000000	0.006191
447.000000	0.005851
446.000000	0.005556
445.000000	0.005298
444.000000	0.005081
443.000000	0.004890
442.000000	0.004708
441.000000	0.004547
440.000000	0.004395
439.000000	0.004264
438.000000	0.004113
437.000000	0.004012
436.000000	0.003889
435.000000	0.003727
434.000000	0.003618
433.000000	0.003460
432.000000	0.003361
431.000000	0.003275
430.000000	0.003187
429.000000	0.003117
428.000000	0.003055
427.000000	0.003005
426.000000	0.002987
425.000000	0.002982
424.000000	0.002978
423.000000	0.003002
422.000000	0.003032
421.000000	0.003042
420.000000	0.003058
419.000000	0.003089
418.000000	0.003096
417.000000	0.003172
416.000000	0.003258
415.000000	0.003345
414.000000	0.003459
413.000000	0.003606
412.000000	0.003765
411.000000	0.003944
410.000000	0.004206
409.000000	0.004461
408.000000	0.004734
407.000000	0.005079
406.000000	0.005356
405.000000	0.005614
404.000000	0.005917
403.000000	0.006248
402.000000	0.006713
401.000000	0.008183
400.000000	0.009263
