TITLE	
DATA TYPE	
ORIGIN	JASCO
OWNER	
DATE	24/07/05
TIME	21:23:00
SPECTROMETER/DATA SYSTEM	JASCO Corp, V-630, Rev. 1.00
RESOLUTION	
DELTAX	-1.000000
XUNITS	NANOMETERS
YUNITS	ABSORBANCE
FIRSTX	800.0000
LASTX	400.0000
NPOINTS	401
FIRSTY	0.006336
MAXY	0.227277
MINY	0.005443
XYDATA
800.000000	0.006336
799.000000	0.006316
798.000000	0.006294
797.000000	0.006279
796.000000	0.006266
795.000000	0.006249
794.000000	0.006235
793.000000	0.006218
792.000000	0.006193
791.000000	0.006177
790.000000	0.006152
789.000000	0.006137
788.000000	0.006120
787.000000	0.006097
786.000000	0.006083
785.000000	0.006053
784.000000	0.006036
783.000000	0.006018
782.000000	0.006000
781.000000	0.005986
780.000000	0.005964
779.000000	0.005949
778.000000	0.005927
777.000000	0.005901
776.000000	0.005892
775.000000	0.005876
774.000000	0.005865
773.000000	0.005869
772.000000	0.005864
771.000000	0.005864
770.000000	0.005864
769.000000	0.005862
768.000000	0.005861
767.000000	0.005854
766.000000	0.005850
765.000000	0.005846
764.000000	0.005836
763.000000	0.005840
762.000000	0.005845
761.000000	0.005852
760.000000	0.005868
759.000000	0.005865
758.000000	0.005873
757.000000	0.005879
756.000000	0.005887
755.000000	0.005903
754.000000	0.005913
753.000000	0.005931
752.000000	0.005940
751.000000	0.005960
750.000000	0.005964
749.000000	0.005973
748.000000	0.005992
747.000000	0.006008
746.000000	0.006031
745.000000	0.006047
744.000000	0.005811
743.000000	0.005844
742.000000	0.005443
741.000000	0.005616
740.000000	0.005881
739.000000	0.005922
738.000000	0.006438
737.000000	0.006061
736.000000	0.006314
735.000000	0.006368
734.000000	0.006583
733.000000	0.006673
732.000000	0.006709
731.000000	0.006665
730.000000	0.006532
729.000000	0.006388
728.000000	0.006278
727.000000	0.006271
726.000000	0.006316
725.000000	0.006408
724.000000	0.006511
723.000000	0.006581
722.000000	0.006657
721.000000	0.006706
720.000000	0.006752
719.000000	0.006807
718.000000	0.006858
717.000000	0.006922
716.000000	0.006988
715.000000	0.007057
714.000000	0.007119
713.000000	0.007179
712.000000	0.007241
711.000000	0.007305
710.000000	0.007374
709.000000	0.007442
708.000000	0.007518
707.000000	0.007593
706.000000	0.007674
705.000000	0.007763
704.000000	0.007851
703.000000	0.007953
702.000000	0.008058
701.000000	0.008179
700.000000	0.008295
699.000000	0.008410
698.000000	0.008533
697.000000	0.008636
696.000000	0.008763
695.000000	0.008885
694.000000	0.009010
693.000000	0.009156
692.000000	0.009287
691.000000	0.009439
690.000000	0.009598
689.000000	0.009738
688.000000	0.009898
687.000000	0.010044
686.000000	0.010191
685.000000	0.010356
684.000000	0.010516
683.000000	0.010675
682.000000	0.010835
681.000000	0.010987
680.000000	0.011141
679.000000	0.011308
678.000000	0.011469
677.000000	0.011639
676.000000	0.011802
675.000000	0.011959
674.000000	0.012108
673.000000	0.012253
672.000000	0.012407
671.000000	0.012553
670.000000	0.012714
669.000000	0.012873
668.000000	0.013024
667.000000	0.013188
666.000000	0.013342
665.000000	0.013511
664.000000	0.013681
663.000000	0.013838
662.000000	0.014017
661.000000	0.014182
660.000000	0.014354
659.000000	0.014534
658.000000	0.014702
657.000000	0.014877
656.000000	0.015052
655.000000	0.015229
654.000000	0.015410
653.000000	0.015586
652.000000	0.015754
651.000000	0.015922
650.000000	0.016098
649.000000	0.016276
648.000000	0.016462
647.000000	0.016636
646.000000	0.016804
645.000000	0.016966
644.000000	0.017131
643.000000	0.017299
642.000000	0.017472
641.000000	0.017639
640.000000	0.017800
639.000000	0.017962
638.000000	0.018103
637.000000	0.018249
636.000000	0.018391
635.000000	0.018519
634.000000	0.018656
633.000000	0.018784
632.000000	0.018916
631.000000	0.019049
630.000000	0.019174
629.000000	0.019304
628.000000	0.019428
627.000000	0.019561
626.000000	0.019700
625.000000	0.019833
624.000000	0.019962
623.000000	0.020099
622.000000	0.020227
621.000000	0.020362
620.000000	0.020505
619.000000	0.020641
618.000000	0.020786
617.000000	0.020940
616.000000	0.021112
615.000000	0.021298
614.000000	0.021493
613.000000	0.021692
612.000000	0.021901
611.000000	0.022127
610.000000	0.022361
609.000000	0.022616
608.000000	0.022884
607.000000	0.023175
606.000000	0.023466
605.000000	0.023772
604.000000	0.024065
603.000000	0.024355
602.000000	0.024677
601.000000	0.024992
600.000000	0.025330
599.000000	0.025680
598.000000	0.026049
597.000000	0.026475
596.000000	0.026930
595.000000	0.027463
594.000000	0.028059
593.000000	0.028744
592.000000	0.029560
591.000000	0.030508
590.000000	0.031633
589.000000	0.032977
588.000000	0.034583
587.000000	0.036509
586.000000	0.038813
585.000000	0.041529
584.000000	0.044724
583.000000	0.048412
582.000000	0.052641
581.000000	0.057446
580.000000	0.062776
579.000000	0.068630
578.000000	0.074907
577.000000	0.081483
576.000000	0.088198
575.000000	0.094827
574.000000	0.101172
573.000000	0.107012
572.000000	0.112195
571.000000	0.116595
570.000000	0.120148
569.000000	0.122822
568.000000	0.124671
567.000000	0.125813
566.000000	0.126390
565.000000	0.126620
564.000000	0.126706
563.000000	0.126849
562.000000	0.127269
561.000000	0.128152
560.000000	0.129705
559.000000	0.132136
558.000000	0.135608
557.000000	0.140253
556.000000	0.146091
555.000000	0.153077
554.000000	0.161037
553.000000	0.169736
552.000000	0.178811
551.000000	0.187855
550.000000	0.196413
549.000000	0.204046
548.000000	0.210368
547.000000	0.215060
546.000000	0.217982
545.000000	0.219057
544.000000	0.218453
543.000000	0.216399
542.000000	0.213242
541.000000	0.209371
540.000000	0.205191
539.000000	0.201110
538.000000	0.197477
537.000000	0.194659
536.000000	0.192926
535.000000	0.192491
534.000000	0.193487
533.000000	0.195912
532.000000	0.199650
531.000000	0.204413
530.000000	0.209775
529.000000	0.215214
528.000000	0.220154
527.000000	0.224054
526.000000	0.226514
525.000000	0.227277
524.000000	0.226267
523.000000	0.223567
522.000000	0.219368
521.000000	0.213971
520.000000	0.207714
519.000000	0.200994
518.000000	0.194214
517.000000	0.187760
516.000000	0.181990
515.000000	0.177235
514.000000	0.173648
513.000000	0.171285
512.000000	0.170117
511.000000	0.169907
510.000000	0.170414
509.000000	0.171253
508.000000	0.171984
507.000000	0.172231
506.000000	0.171637
505.000000	0.169955
504.000000	0.166955
503.000000	0.163033
502.000000	0.158849
501.000000	0.151213
500.000000	0.143693
499.000000	0.136114
498.000000	0.130497
497.000000	0.125602
496.000000	0.121611
495.000000	0.118125
494.000000	0.115061
493.000000	0.112487
492.000000	0.110549
491.000000	0.109042
490.000000	0.107728
489.000000	0.106360
488.000000	0.104664
487.000000	0.102551
486.000000	0.099875
485.000000	0.096685
484.000000	0.093058
483.000000	0.089086
482.000000	0.084940
481.000000	0.080766
480.000000	0.076730
479.000000	0.072983
478.000000	0.069619
477.000000	0.066710
476.000000	0.064234
475.000000	0.062166
474.000000	0.060442
473.000000	0.058919
472.000000	0.057503
471.000000	0.056035
470.000000	0.054406
469.000000	0.052595
468.000000	0.050530
467.000000	0.048313
466.000000	0.046009
465.000000	0.043629
464.000000	0.041344
463.000000	0.039167
462.000000	0.037168
461.000000	0.035394
460.000000	0.033856
459.000000	0.032490
458.000000	0.031326
457.000000	0.030300
456.000000	0.029323
455.000000	0.028404
454.000000	0.027412
453.000000	0.026389
452.000000	0.025327
451.000000	0.024236
450.000000	0.023161
449.000000	0.022132
448.000000	0.021138
447.000000	0.020256
446.000000	0.019451
445.000000	0.018751
444.000000	0.018187
443.000000	0.017679
442.000000	0.017237
441.000000	0.016811
440.000000	0.016424
439.000000	0.016041
438.000000	0.015688
437.000000	0.015373
436.000000	0.015039
435.000000	0.014741
434.000000	0.014494
433.000000	0.014281
432.000000	0.014150
431.000000	0.014078
430.000000	0.014071
429.000000	0.014142
428.000000	0.014269
427.000000	0.014478
426.000000	0.014724
425.000000	0.015001
424.000000	0.015350
423.000000	0.015722
422.000000	0.016149
421.000000	0.016563
420.000000	0.016963
419.000000	0.017328
418.000000	0.017615
417.000000	0.017890
416.000000	0.018087
415.000000	0.018303
414.000000	0.018487
413.000000	0.018675
412.000000	0.018890
411.000000	0.019023
410.000000	0.019267
409.000000	0.019501
408.000000	0.019799
407.000000	0.020221
406.000000	0.020653
405.000000	0.021168
404.000000	0.021608
403.000000	0.022316
402.000000	0.028038
401.000000	0.018534
400.000000	0.020318
